File: Maddalena/Sio2_teorico_418.txt
Wavelength (nm)	Reflectance
300	0.575098
306	0.589012
312	0.5873191
318	0.5692035
324	0.5341344
330	0.4829682
336	0.4200254
342	0.355725
348	0.3071032
354	0.2931884
360	0.3215543
366	0.3695309
372	0.4088232
378	0.4353628
384	0.4542199
390	0.4670686
396	0.473771
402	0.4739672
408	0.4674994
414	0.454675
420	0.4359923
426	0.4117167
432	0.3824945
438	0.3491307
444	0.3126312
450	0.2745803
456	0.2366205
462	0.2013439
468	0.1702535
474	0.1452346
480	0.1278451
486	0.1187929
492	0.1178065
498	0.1240717
504	0.1362061
510	0.1526922
516	0.1722165
522	0.1932555
528	0.2147264
534	0.2355055
540	0.2552157
546	0.2733944
552	0.2899046
558	0.3041773
564	0.3166869
570	0.3270023
576	0.3354776
582	0.3419521
588	0.3466076
594	0.3496272
600	0.3510116
606	0.3508218
612	0.3491533
618	0.346162
624	0.3418255
630	0.3363557
636	0.3298093
642	0.3221877
648	0.3135639
654	0.3041622
660	0.2941073
666	0.2832053
672	0.2718076
678	0.2599552
684	0.2477309
690	0.2352843
696	0.2226491
702	0.2099136
708	0.1972366
714	0.1846752
720	0.1724934
726	0.160615
732	0.1492096
738	0.1384427
744	0.128254
750	0.1187652
756	0.1101148
762	0.1024025
768	0.0956225
774	0.0897266
780	0.0847078
786	0.0806982
792	0.0776513
798	0.0755463
804	0.0743145
810	0.0740464
816	0.0746878
822	0.0760513
828	0.0781498
834	0.0809303
840	0.0843194
846	0.0883136
852	0.0928118
858	0.0977528
864	0.1030423
870	0.1086373
876	0.1145545
882	0.1206719
888	0.1269674
894	0.1334582
900	0.1400357
906	0.1467183
912	0.153397
918	0.1600228
924	0.1666417
930	0.1732098
936	0.1796344
942	0.1859512
948	0.1921438
954	0.1982341
960	0.2042439
966	0.2100458
972	0.2156808
978	0.2211422
984	0.2264532
990	0.2315931
996	0.2365049
1002	0.2412425
1008	0.2458191
1014	0.2502076
1020	0.2544083
1026	0.2584549
1032	0.262303
1038	0.2659459
1044	0.2694077
1050	0.2726908
1056	0.2756781
1062	0.2786615
1068	0.2814757
1074	0.2841386
1080	0.2866442
1086	0.2889708
1092	0.29115
1098	0.293174
1104	0.2950556
1110	0.2967937
1116	0.2983909
1122	0.2998509
1128	0.3011771
1134	0.3023884
1140	0.3034691
1146	0.3044261
1152	0.3052636
1158	0.3059845
1164	0.3065922
1170	0.3070898
1176	0.3074821
1182	0.3077779
1188	0.3079679
1194	0.3080616
1200	0.3080655
1206	0.3079808
1212	0.3078018
1218	0.3075438
1224	0.3072004
1230	0.3067705
1236	0.3062742
1242	0.3056977
1248	0.3050438
1254	0.304325
1260	0.3035365
1266	0.3026806
1272	0.3017594
1278	0.3007739
1284	0.299727
1290	0.2986321
1296	0.2974811
1302	0.2962677
1308	0.2950102
1314	0.2937013
1320	0.292343
1326	0.2909386
1332	0.2894956
1338	0.2879992
1344	0.2864684
1350	0.2848973
1356	0.2832711
1362	0.2816176
1368	0.2799365
1374	0.2782206
1380	0.2764714
1386	0.2746903
1392	0.2728826
1398	0.2710489
1404	0.2691806
1410	0.267296
1416	0.2653717
1422	0.2634212
1428	0.2614675
1434	0.2594925
1440	0.2574973
1446	0.2554832
1452	0.2534513
1458	0.2514046
1464	0.2493475
1470	0.2472708
1476	0.2451807
1482	0.2430833
1488	0.2409576
1494	0.238834
1500	0.2367113
1506	0.2345701
1512	0.2324318
1518	0.2302887
1524	0.2281374
1530	0.2259865
1536	0.223816
1542	0.221643
1548	0.2194849
1554	0.2173244
1560	0.2151591
1566	0.2130056
1572	0.21085
1578	0.2086934
1584	0.2065347
1590	0.2043646
1596	0.2022239
1602	0.2000882
1608	0.1979579
1614	0.1958335
1620	0.1937157
1626	0.1916051
1632	0.1894971
1638	0.1873929
1644	0.1853068
1650	0.1832311
1656	0.1811748
1662	0.1791231
1668	0.1770855
1674	0.1750504
1680	0.1730183
1686	0.17102
1692	0.1690286
1698	0.1670583
1704	0.1650931
1710	0.1631296
1716	0.1612017
1722	0.1592892
1728	0.1573919
1734	0.1555102
1740	0.1536445
1746	0.1517841
1752	0.1499443
1758	0.1481288
1764	0.1463305
1770	0.1445496
1776	0.1427855
1782	0.1410343
1788	0.1393077
1794	0.137606
1800	0.1359184